Wavelength(nm)	H2O 1(Abs)	H2O 2(Abs)	H2O 3(Abs)	F_20_uM 1(Abs)	F_20_uM 2(Abs)	F_20_uM 3(Abs)	F_20_uM 4(Abs)	F_17_uM 1(Abs)	F_17_uM 2(Abs)	F_17_uM 3(Abs)	F_17_uM 4(Abs)	F_10_uM 1(Abs)	F_10_uM 2(Abs)	F_10_uM 3(Abs)	F_10_uM 4(Abs)	F_8_uM 1(Abs)	F_8_uM 2(Abs)	F_8_uM 3(Abs)	F_8_uM 4(Abs)	F_2_uM 1(Abs)	F_2_uM 2(Abs)	F_2_uM 3(Abs)	F_2_uM 4(Abs)	F_1_uM 1(Abs)	F_1_uM 2(Abs)	F_1_uM 3(Abs)	F_1_uM 4(Abs)	F_4_uM 1(Abs)	F_4_uM 2(Abs)	F_4_uM 3(Abs)	F_4_uM 4(Abs)	
600.0	-0.00121	-0.00003	-0.00025	-0.01032	-0.01046	-0.01039	-0.01067	-0.01070	-0.00915	-0.00973	-0.00989	-0.00997	-0.01002	-0.00859	-0.00946	0.00126	0.00104	0.00088	0.00158	-0.00908	-0.00911	-0.00976	-0.00892	-0.00977	-0.00984	-0.01025	-0.01073	-0.01061	-0.00925	-0.01062	-0.01001	
599.0	0.00105	-0.00007	0.00018	-0.00827	-0.00920	-0.00897	-0.00931	-0.00904	-0.00895	-0.00914	-0.00892	-0.00823	-0.00904	-0.00862	-0.00878	0.00183	0.00177	0.00175	0.00223	-0.00815	-0.00846	-0.00764	-0.00725	-0.00919	-0.00844	-0.00888	-0.00987	-0.00890	-0.00972	-0.00941	-0.00938	
598.0	0.00037	-0.00005	0.00056	-0.01004	-0.01024	-0.00910	-0.00988	-0.00918	-0.00863	-0.00938	-0.00862	-0.00935	-0.00909	-0.00905	-0.00911	0.00229	0.00205	0.00261	0.00158	-0.00741	-0.00802	-0.00771	-0.00776	-0.00925	-0.00881	-0.00931	-0.00920	-0.00945	-0.01001	-0.00930	-0.00946	
597.0	-0.00029	0.00053	-0.00005	-0.00929	-0.00935	-0.00967	-0.00976	-0.00964	-0.00924	-0.00965	-0.00922	-0.00906	-0.00910	-0.00945	-0.00951	0.00163	0.00140	0.00114	0.00139	-0.00887	-0.00832	-0.00823	-0.00865	-0.00968	-0.00976	-0.00873	-0.00962	-0.00937	-0.00948	-0.00943	-0.00934	
596.0	-0.00030	-0.00042	-0.00036	-0.00961	-0.00915	-0.00968	-0.00962	-0.00953	-0.00946	-0.00934	-0.00952	-0.00941	-0.00974	-0.00949	-0.00945	0.00131	0.00082	0.00074	0.00143	-0.00765	-0.00855	-0.00870	-0.00843	-0.00995	-0.00968	-0.00959	-0.00955	-0.01022	-0.00984	-0.01088	-0.00935	
595.0	-0.00097	-0.00047	-0.00094	-0.00979	-0.01035	-0.01039	-0.01033	-0.01081	-0.00997	-0.01012	-0.01020	-0.00872	-0.00900	-0.00984	-0.00893	0.00081	0.00093	0.00075	0.00075	-0.00877	-0.00795	-0.00951	-0.00912	-0.00925	-0.01050	-0.00986	-0.01021	-0.01047	-0.01036	-0.01020	-0.01047	
594.0	-0.00002	-0.00080	-0.00036	-0.00956	-0.00932	-0.01035	-0.00933	-0.00888	-0.00928	-0.00922	-0.00925	-0.00894	-0.00883	-0.00961	-0.00955	0.00160	0.00197	0.00076	0.00153	-0.00763	-0.00742	-0.00757	-0.00796	-0.00842	-0.00882	-0.00935	-0.00944	-0.00948	-0.00956	-0.00966	-0.00967	
593.0	-0.00022	-0.00011	0.00009	-0.00909	-0.00962	-0.00937	-0.00908	-0.00931	-0.00855	-0.00866	-0.00906	-0.00805	-0.00886	-0.00857	-0.00939	0.00138	0.00142	0.00053	0.00169	-0.00853	-0.00848	-0.00933	-0.00828	-0.00949	-0.00938	-0.00927	-0.00920	-0.00932	-0.00928	-0.01020	-0.00980	
592.0	-0.00102	-0.00005	-0.00060	-0.00965	-0.00971	-0.00965	-0.00989	-0.00961	-0.00909	-0.00919	-0.00897	-0.00864	-0.00946	-0.00914	-0.00895	0.00085	0.00115	0.00077	0.00199	-0.00898	-0.00925	-0.00858	-0.00764	-0.01003	-0.00966	-0.00852	-0.00990	-0.01036	-0.00990	-0.01042	-0.00992	
591.0	0.00044	-0.00041	-0.00085	-0.00962	-0.00967	-0.01016	-0.00938	-0.00946	-0.00969	-0.00968	-0.00974	-0.00868	-0.00856	-0.00972	-0.00914	0.00039	0.00122	0.00108	0.00038	-0.00881	-0.00878	-0.00887	-0.00853	-0.01009	-0.00951	-0.00911	-0.00984	-0.00868	-0.00943	-0.01067	-0.00972	
590.0	0.00072	0.00053	0.00037	-0.00901	-0.00833	-0.00928	-0.00868	-0.00813	-0.00874	-0.00838	-0.00890	-0.00793	-0.00917	-0.00838	-0.00814	0.00208	0.00100	0.00155	0.00183	-0.00836	-0.00780	-0.00742	-0.00724	-0.00896	-0.00870	-0.00998	-0.00896	-0.00915	-0.00893	-0.00943	-0.00879	
589.0	-0.00052	0.00011	-0.00084	-0.00965	-0.00942	-0.00948	-0.00930	-0.00934	-0.00980	-0.00935	-0.00970	-0.00929	-0.00825	-0.00981	-0.00956	0.00087	0.00007	0.00061	0.00038	-0.00806	-0.00844	-0.00945	-0.00919	-0.00956	-0.00919	-0.00974	-0.01051	-0.01041	-0.01012	-0.00965	-0.01023	
588.0	-0.00018	0.00007	-0.00089	-0.00981	-0.01033	-0.00901	-0.00923	-0.00971	-0.00952	-0.00973	-0.00969	-0.00860	-0.00876	-0.00917	-0.00891	0.00126	0.00097	0.00129	0.00065	-0.00882	-0.00910	-0.00836	-0.00798	-0.00931	-0.01009	-0.00933	-0.01012	-0.00983	-0.00950	-0.00930	-0.01039	
587.0	0.00034	-0.00007	0.00067	-0.00903	-0.00896	-0.00831	-0.00912	-0.00856	-0.00837	-0.00891	-0.00908	-0.00835	-0.00856	-0.00827	-0.00823	0.00103	0.00228	0.00228	0.00103	-0.00808	-0.00791	-0.00755	-0.00835	-0.00936	-0.00906	-0.00930	-0.00898	-0.00840	-0.00931	-0.00916	-0.00884	
586.0	0.00071	0.00073	-0.00044	-0.00958	-0.00873	-0.00939	-0.00850	-0.00840	-0.00951	-0.00859	-0.00930	-0.00881	-0.00872	-0.00866	-0.00907	0.00124	0.00146	0.00118	0.00163	-0.00844	-0.00889	-0.00853	-0.00856	-0.00867	-0.00883	-0.00952	-0.00919	-0.00937	-0.01021	-0.00966	-0.00925	
585.0	0.00040	0.00065	0.00002	-0.00857	-0.00776	-0.00834	-0.00928	-0.00931	-0.00791	-0.00932	-0.00850	-0.00911	-0.00800	-0.00839	-0.00848	0.00227	0.00147	0.00160	0.00222	-0.00799	-0.00728	-0.00873	-0.00885	-0.00889	-0.00845	-0.00852	-0.00849	-0.00938	-0.00877	-0.00947	-0.00893	
584.0	-0.00040	-0.00104	-0.00042	-0.01014	-0.01003	-0.00970	-0.01002	-0.01003	-0.00995	-0.00958	-0.01042	-0.00980	-0.00983	-0.00909	-0.01026	0.00139	0.00073	-0.00009	0.00107	-0.00907	-0.00874	-0.00820	-0.00928	-0.00958	-0.00972	-0.01025	-0.00960	-0.01008	-0.01054	-0.00996	-0.00996	
583.0	-0.00006	0.00032	-0.00026	-0.00933	-0.00883	-0.00893	-0.00957	-0.00886	-0.00840	-0.00881	-0.00934	-0.00899	-0.00837	-0.00815	-0.00840	0.00132	0.00197	0.00181	0.00162	-0.00843	-0.00873	-0.00784	-0.00821	-0.00888	-0.00933	-0.00911	-0.00862	-0.00898	-0.00944	-0.00875	-0.00848	
582.0	0.00005	0.00019	-0.00045	-0.00932	-0.00889	-0.00932	-0.00830	-0.00863	-0.00917	-0.01019	-0.00990	-0.00924	-0.00868	-0.00902	-0.00909	0.00119	0.00041	0.00078	0.00061	-0.00851	-0.00861	-0.00823	-0.00781	-0.00932	-0.00945	-0.00950	-0.00952	-0.01011	-0.00967	-0.00958	-0.00850	
581.0	0.00007	0.00002	-0.00033	-0.00928	-0.00936	-0.00914	-0.00988	-0.00936	-0.00890	-0.00934	-0.00936	-0.00908	-0.00916	-0.00928	-0.00881	0.00184	0.00136	0.00099	0.00108	-0.00795	-0.00828	-0.00803	-0.00795	-0.00916	-0.00990	-0.00996	-0.00992	-0.00963	-0.01009	-0.00916	-0.00945	
580.0	-0.00027	-0.00045	-0.00033	-0.01051	-0.00956	-0.00985	-0.00946	-0.00979	-0.00999	-0.00977	-0.00912	-0.00899	-0.00889	-0.00903	-0.00925	0.00150	0.00093	0.00086	0.00055	-0.00869	-0.00841	-0.00877	-0.00894	-0.00983	-0.00890	-0.00971	-0.00945	-0.00953	-0.00988	-0.00999	-0.00949	
579.0	0.00016	0.00013	-0.00012	-0.00898	-0.00857	-0.00896	-0.00966	-0.00947	-0.00930	-0.00942	-0.00947	-0.00844	-0.00846	-0.00954	-0.00883	0.00171	0.00167	0.00194	0.00101	-0.00780	-0.00811	-0.00858	-0.00801	-0.00910	-0.00961	-0.00883	-0.00916	-0.01042	-0.00963	-0.00944	-0.00950	
578.0	0.00065	0.00033	0.00011	-0.00960	-0.00964	-0.00939	-0.00877	-0.00906	-0.00930	-0.00913	-0.00929	-0.00887	-0.00850	-0.00792	-0.00864	0.00123	0.00170	0.00100	0.00207	-0.00865	-0.00811	-0.00820	-0.00732	-0.00885	-0.00909	-0.00967	-0.00892	-0.00942	-0.00898	-0.00959	-0.00963	
577.0	-0.00049	-0.00027	-0.00074	-0.01042	-0.00945	-0.00981	-0.00929	-0.00924	-0.00980	-0.00909	-0.01023	-0.00994	-0.00914	-0.00932	-0.00936	0.00113	0.00114	0.00009	0.00064	-0.00848	-0.00860	-0.00850	-0.00902	-0.01013	-0.00964	-0.00970	-0.00904	-0.00974	-0.00977	-0.01026	-0.01016	
576.0	-0.00079	-0.00047	-0.00064	-0.00925	-0.00931	-0.00972	-0.00957	-0.00967	-0.00950	-0.00941	-0.00935	-0.00950	-0.00943	-0.00929	-0.00903	0.00058	0.00081	0.00070	0.00057	-0.00823	-0.00908	-0.00888	-0.00897	-0.00985	-0.00999	-0.00942	-0.00925	-0.01006	-0.00973	-0.01036	-0.01016	
575.0	-0.00013	-0.00020	0.00059	-0.00948	-0.00934	-0.00955	-0.00888	-0.00928	-0.00881	-0.00892	-0.00877	-0.00883	-0.00868	-0.00886	-0.00927	0.00075	0.00102	0.00115	0.00188	-0.00845	-0.00839	-0.00853	-0.00787	-0.00934	-0.00906	-0.00875	-0.00974	-0.00929	-0.00899	-0.00896	-0.00952	
574.0	-0.00015	-0.00062	0.00016	-0.00935	-0.00954	-0.00988	-0.00917	-0.00948	-0.00887	-0.00890	-0.00943	-0.00862	-0.00944	-0.00907	-0.00842	0.00107	0.00108	0.00068	0.00089	-0.00793	-0.00855	-0.00812	-0.00842	-0.00865	-0.00864	-0.00905	-0.00929	-0.00955	-0.01006	-0.00937	-0.01019	
573.0	-0.00007	0.00050	0.00010	-0.00911	-0.00916	-0.00880	-0.00930	-0.00827	-0.00895	-0.00926	-0.00922	-0.00867	-0.00905	-0.00893	-0.00883	0.00103	0.00148	0.00146	0.00122	-0.00779	-0.00812	-0.00837	-0.00804	-0.00914	-0.00956	-0.00891	-0.00931	-0.00979	-0.00985	-0.00900	-0.00987	
572.0	0.00016	0.00015	-0.00034	-0.00976	-0.00922	-0.00932	-0.00937	-0.00974	-0.00922	-0.00945	-0.00920	-0.00900	-0.00881	-0.00882	-0.00896	0.00110	0.00032	0.00049	-0.00013	-0.00810	-0.00851	-0.00826	-0.00868	-0.00896	-0.00981	-0.00939	-0.00970	-0.00977	-0.00986	-0.00913	-0.01012	
571.0	-0.00018	-0.00032	-0.00053	-0.00951	-0.00975	-0.00939	-0.00971	-0.00878	-0.00962	-0.00904	-0.00976	-0.00887	-0.00973	-0.00939	-0.00902	0.00041	0.00079	0.00040	0.00051	-0.00853	-0.00864	-0.00852	-0.00857	-0.00960	-0.00941	-0.00885	-0.01005	-0.01013	-0.00999	-0.00950	-0.01012	
570.0	0.00055	0.00052	-0.00051	-0.00908	-0.00858	-0.00875	-0.00908	-0.00899	-0.00872	-0.00909	-0.00813	-0.00875	-0.00882	-0.00855	-0.00872	0.00103	0.00059	0.00090	0.00037	-0.00812	-0.00822	-0.00808	-0.00796	-0.00927	-0.00889	-0.00941	-0.00927	-0.00949	-0.00954	-0.00888	-0.00920	
569.0	-0.00084	-0.00059	-0.00029	-0.00946	-0.00937	-0.01002	-0.00929	-0.00935	-0.00977	-0.00998	-0.00897	-0.01000	-0.00940	-0.00946	-0.00880	0.00056	0.00057	-0.00027	0.00027	-0.00845	-0.00889	-0.00862	-0.00879	-0.00964	-0.00951	-0.01008	-0.00959	-0.00981	-0.00954	-0.00937	-0.01041	
568.0	0.00033	-0.00029	-0.00009	-0.00923	-0.00958	-0.00839	-0.00909	-0.00918	-0.00883	-0.00926	-0.00946	-0.00875	-0.00940	-0.00926	-0.00938	0.00052	0.00068	0.00025	0.00033	-0.00850	-0.00804	-0.00812	-0.00836	-0.00935	-0.00952	-0.00946	-0.00917	-0.00936	-0.00980	-0.00971	-0.00924	
567.0	-0.00002	-0.00033	-0.00008	-0.00985	-0.00935	-0.00981	-0.00989	-0.00957	-0.00905	-0.00973	-0.00961	-0.00918	-0.00905	-0.00933	-0.00831	0.00077	0.00054	0.00025	0.00050	-0.00854	-0.00895	-0.00854	-0.00848	-0.00940	-0.00995	-0.01042	-0.00940	-0.00979	-0.00983	-0.00965	-0.00973	
566.0	-0.00019	0.00021	0.00017	-0.00935	-0.00948	-0.00984	-0.00929	-0.00898	-0.00856	-0.00921	-0.00909	-0.00860	-0.00868	-0.00869	-0.00948	0.00092	0.00044	0.00032	0.00090	-0.00864	-0.00841	-0.00840	-0.00834	-0.00897	-0.00940	-0.00868	-0.00926	-0.00927	-0.00876	-0.00926	-0.00920	
565.0	-0.00053	-0.00005	-0.00057	-0.00928	-0.00929	-0.00948	-0.00906	-0.00902	-0.00920	-0.00934	-0.00894	-0.00900	-0.00914	-0.00886	-0.00895	0.00073	0.00057	0.00005	-0.00004	-0.00820	-0.00873	-0.00900	-0.00903	-0.00902	-0.00941	-0.00940	-0.00924	-0.00975	-0.00989	-0.00984	-0.01001	
564.0	0.00059	0.00039	0.00056	-0.00884	-0.00897	-0.00860	-0.00890	-0.00835	-0.00858	-0.00907	-0.00894	-0.00831	-0.00907	-0.00882	-0.00852	0.00110	0.00055	0.00073	0.00128	-0.00819	-0.00822	-0.00825	-0.00855	-0.00863	-0.00959	-0.00829	-0.00947	-0.00881	-0.00898	-0.00858	-0.00884	
563.0	0.00023	0.00072	0.00071	-0.00895	-0.00893	-0.00834	-0.00888	-0.00820	-0.00777	-0.00842	-0.00839	-0.00829	-0.00799	-0.00869	-0.00861	0.00119	0.00103	0.00127	0.00170	-0.00814	-0.00741	-0.00769	-0.00844	-0.00878	-0.00923	-0.00858	-0.00892	-0.00900	-0.00861	-0.00902	-0.00845	
562.0	0.00022	-0.00029	-0.00002	-0.00883	-0.00910	-0.00802	-0.00886	-0.00894	-0.00886	-0.00882	-0.00826	-0.00917	-0.00898	-0.00842	-0.00885	-0.00004	0.00079	0.00055	0.00109	-0.00860	-0.00840	-0.00817	-0.00838	-0.00847	-0.00958	-0.00883	-0.00890	-0.00959	-0.00931	-0.00927	-0.00896	
561.0	0.00035	0.00035	0.00041	-0.00886	-0.00903	-0.00849	-0.00866	-0.00919	-0.00809	-0.00873	-0.00863	-0.00855	-0.00955	-0.00868	-0.00840	0.00032	0.00045	0.00056	0.00085	-0.00813	-0.00795	-0.00879	-0.00880	-0.00920	-0.00890	-0.00837	-0.00910	-0.00956	-0.00985	-0.00942	-0.00946	
560.0	-0.00036	-0.00030	-0.00088	-0.00968	-0.00914	-0.00948	-0.01004	-0.00976	-0.00928	-0.00977	-0.00847	-0.00901	-0.00919	-0.00902	-0.00907	-0.00022	-0.00009	-0.00050	0.00004	-0.00871	-0.00930	-0.00928	-0.00816	-0.00922	-0.01043	-0.01064	-0.00933	-0.01035	-0.00949	-0.00997	-0.00939	
559.0	-0.00008	0.00014	0.00043	-0.00928	-0.00879	-0.00928	-0.00857	-0.00841	-0.00869	-0.00853	-0.00911	-0.00850	-0.00918	-0.00825	-0.00873	0.00081	0.00019	0.00015	0.00077	-0.00779	-0.00831	-0.00885	-0.00816	-0.00905	-0.00961	-0.00873	-0.00915	-0.00885	-0.00851	-0.00943	-0.00942	
558.0	-0.00101	0.00034	0.00004	-0.00839	-0.00913	-0.00838	-0.00913	-0.00870	-0.00952	-0.00899	-0.00838	-0.00878	-0.00854	-0.00884	-0.00813	0.00097	0.00016	0.00007	0.00005	-0.00808	-0.00818	-0.00878	-0.00842	-0.00957	-0.00946	-0.00987	-0.00958	-0.00965	-0.00945	-0.00958	-0.00920	
557.0	-0.00002	-0.00022	0.00026	-0.00904	-0.00851	-0.00838	-0.00934	-0.00888	-0.00874	-0.00923	-0.00911	-0.00848	-0.00838	-0.00823	-0.00863	0.00017	0.00031	0.00006	0.00023	-0.00810	-0.00821	-0.00830	-0.00812	-0.00902	-0.00889	-0.00883	-0.00872	-0.00938	-0.00882	-0.00931	-0.00967	
556.0	-0.00001	-0.00005	-0.00027	-0.01000	-0.00992	-0.00939	-0.00886	-0.00894	-0.00949	-0.00896	-0.00947	-0.00953	-0.00908	-0.00882	-0.00886	0.00026	-0.00008	0.00017	0.00002	-0.00880	-0.00803	-0.00886	-0.00893	-0.00976	-0.00914	-0.00966	-0.00944	-0.00945	-0.00906	-0.00982	-0.00997	
555.0	-0.00081	0.00018	-0.00013	-0.00948	-0.01015	-0.00948	-0.00927	-0.00918	-0.00973	-0.01004	-0.00951	-0.00896	-0.00953	-0.00974	-0.00989	0.00025	-0.00008	-0.00044	-0.00072	-0.00937	-0.00903	-0.00910	-0.00967	-0.00993	-0.00975	-0.01020	-0.00957	-0.00984	-0.01045	-0.00943	-0.01013	
554.0	-0.00036	0.00034	-0.00025	-0.00874	-0.00846	-0.00928	-0.00896	-0.00886	-0.00890	-0.00922	-0.00887	-0.00848	-0.00916	-0.00886	-0.00864	0.00049	0.00068	0.00003	0.00077	-0.00854	-0.00840	-0.00824	-0.00805	-0.00952	-0.00915	-0.00928	-0.00942	-0.00897	-0.00988	-0.01006	-0.00931	
553.0	-0.00078	-0.00050	-0.00073	-0.00989	-0.00982	-0.01032	-0.00966	-0.00982	-0.00946	-0.00919	-0.00993	-0.00966	-0.00954	-0.01031	-0.00943	-0.00008	-0.00079	-0.00048	-0.00052	-0.00874	-0.00920	-0.00934	-0.00942	-0.01057	-0.00998	-0.00991	-0.01029	-0.01029	-0.01022	-0.00978	-0.00996	
552.0	0.00031	0.00037	-0.00010	-0.00887	-0.00893	-0.00957	-0.00888	-0.00931	-0.00869	-0.00907	-0.00940	-0.00858	-0.00890	-0.00936	-0.00886	-0.00008	0.00035	0.00054	-0.00010	-0.00818	-0.00836	-0.00861	-0.00876	-0.00982	-0.00946	-0.00906	-0.00934	-0.00962	-0.00974	-0.00934	-0.00927	
551.0	0.00010	0.00017	0.00015	-0.00846	-0.00879	-0.00916	-0.00900	-0.00903	-0.00875	-0.00874	-0.00871	-0.00866	-0.00828	-0.00865	-0.00857	0.00058	0.00058	0.00023	0.00032	-0.00822	-0.00745	-0.00846	-0.00827	-0.00923	-0.00948	-0.00878	-0.00945	-0.00971	-0.00905	-0.00885	-0.00921	
550.0	-0.00002	0.00023	0.00058	-0.00864	-0.00862	-0.00823	-0.00889	-0.00827	-0.00847	-0.00886	-0.00856	-0.00855	-0.00902	-0.00849	-0.00825	0.00004	0.00057	0.00072	0.00081	-0.00834	-0.00834	-0.00846	-0.00785	-0.00938	-0.00895	-0.00900	-0.00909	-0.00890	-0.00878	-0.00898	-0.00886	
549.0	-0.00065	-0.00085	-0.00077	-0.00957	-0.00964	-0.00954	-0.00938	-0.00918	-0.00931	-0.00954	-0.00958	-0.00963	-0.00919	-0.00952	-0.00897	-0.00046	-0.00061	-0.00041	-0.00048	-0.00921	-0.00934	-0.00895	-0.00899	-0.00989	-0.01009	-0.00980	-0.00993	-0.00962	-0.01002	-0.00991	-0.00988	
548.0	0.00001	0.00012	0.00023	-0.00886	-0.00871	-0.00835	-0.00899	-0.00816	-0.00881	-0.00918	-0.00870	-0.00853	-0.00892	-0.00910	-0.00888	0.00043	0.00048	0.00021	0.00060	-0.00869	-0.00783	-0.00837	-0.00797	-0.00935	-0.00931	-0.00934	-0.00965	-0.00959	-0.00928	-0.00933	-0.00938	
547.0	0.00006	-0.00067	-0.00014	-0.00922	-0.00932	-0.00904	-0.00912	-0.00902	-0.00931	-0.00895	-0.00967	-0.00889	-0.00917	-0.00912	-0.00883	0.00029	-0.00029	-0.00023	-0.00005	-0.00836	-0.00862	-0.00901	-0.00866	-0.00960	-0.00961	-0.00968	-0.00948	-0.00994	-0.00998	-0.01017	-0.01001	
546.0	0.00046	-0.00034	-0.00036	-0.00871	-0.00900	-0.00899	-0.00888	-0.00908	-0.00871	-0.00867	-0.00873	-0.00860	-0.00837	-0.00898	-0.00886	0.00073	0.00020	0.00040	0.00044	-0.00821	-0.00829	-0.00813	-0.00897	-0.00939	-0.00901	-0.00901	-0.00887	-0.00925	-0.00939	-0.00931	-0.00969	
545.0	-0.00012	-0.00010	-0.00021	-0.00893	-0.00894	-0.00931	-0.00944	-0.00890	-0.00932	-0.00921	-0.00942	-0.00891	-0.00912	-0.00928	-0.00923	-0.00026	-0.00023	-0.00008	-0.00017	-0.00899	-0.00895	-0.00882	-0.00882	-0.00953	-0.00986	-0.01013	-0.00986	-0.00978	-0.00935	-0.00981	-0.00977	
544.0	-0.00015	0.00015	0.00008	-0.00847	-0.00901	-0.00870	-0.00839	-0.00891	-0.00870	-0.00883	-0.00921	-0.00854	-0.00900	-0.00881	-0.00857	0.00035	0.00025	0.00042	0.00039	-0.00867	-0.00811	-0.00853	-0.00826	-0.00962	-0.00948	-0.00954	-0.00967	-0.00945	-0.00948	-0.00940	-0.00914	
543.0	-0.00001	0.00007	0.00002	-0.00888	-0.00889	-0.00885	-0.00880	-0.00888	-0.00887	-0.00900	-0.00885	-0.00885	-0.00897	-0.00901	-0.00887	0.00039	0.00022	0.00028	0.00028	-0.00845	-0.00835	-0.00851	-0.00842	-0.00935	-0.00934	-0.00943	-0.00951	-0.00943	-0.00941	-0.00943	-0.00953	
542.0	-0.00010	0.00007	-0.00004	-0.00905	-0.00917	-0.00910	-0.00911	-0.00895	-0.00893	-0.00904	-0.00902	-0.00903	-0.00904	-0.00912	-0.00916	-0.00013	-0.00015	-0.00019	-0.00019	-0.00879	-0.00873	-0.00882	-0.00870	-0.00965	-0.00970	-0.00960	-0.00966	-0.00968	-0.00969	-0.00965	-0.00979	
541.0	0.00013	0.00004	0.00004	-0.00880	-0.00886	-0.00879	-0.00888	-0.00875	-0.00868	-0.00891	-0.00890	-0.00899	-0.00900	-0.00903	-0.00886	-0.00043	-0.00041	-0.00048	-0.00037	-0.00863	-0.00872	-0.00871	-0.00866	-0.00956	-0.00958	-0.00952	-0.00963	-0.00960	-0.00963	-0.00952	-0.00961	
540.0	0.00010	0.00010	-0.00005	-0.00857	-0.00866	-0.00884	-0.00860	-0.00882	-0.00850	-0.00872	-0.00884	-0.00901	-0.00960	-0.00883	-0.00881	-0.00015	-0.00003	-0.00041	-0.00039	-0.00890	-0.00862	-0.00912	-0.00835	-0.00974	-0.01000	-0.00966	-0.00979	-0.00944	-0.00957	-0.00991	-0.00962	
539.0	0.00046	0.00019	0.00024	-0.00831	-0.00875	-0.00823	-0.00799	-0.00843	-0.00850	-0.00792	-0.00836	-0.00840	-0.00834	-0.00865	-0.00873	0.00044	0.00031	0.00026	0.00013	-0.00805	-0.00836	-0.00852	-0.00847	-0.00925	-0.00940	-0.00942	-0.00944	-0.00939	-0.00908	-0.00941	-0.00954	
538.0	0.00008	-0.00006	-0.00020	-0.00834	-0.00866	-0.00851	-0.00826	-0.00863	-0.00884	-0.00886	-0.00864	-0.00876	-0.00849	-0.00863	-0.00867	0.00046	0.00029	-0.00004	0.00037	-0.00869	-0.00853	-0.00885	-0.00887	-0.00923	-0.00972	-0.00942	-0.00957	-0.00991	-0.00953	-0.00967	-0.00967	
537.0	-0.00021	0.00027	0.00025	-0.00863	-0.00847	-0.00814	-0.00850	-0.00852	-0.00874	-0.00845	-0.00876	-0.00920	-0.00897	-0.00903	-0.00895	-0.00010	-0.00011	-0.00012	0.00004	-0.00864	-0.00899	-0.00877	-0.00906	-0.00963	-0.01010	-0.01004	-0.00981	-0.00939	-0.00978	-0.00953	-0.00970	
536.0	-0.00007	-0.00008	-0.00014	-0.00816	-0.00828	-0.00841	-0.00840	-0.00856	-0.00849	-0.00854	-0.00776	-0.00907	-0.00845	-0.00870	-0.00880	0.00001	-0.00068	-0.00029	-0.00039	-0.00889	-0.00895	-0.00881	-0.00850	-0.00911	-0.00966	-0.00959	-0.00969	-0.00960	-0.00966	-0.00973	-0.00962	
535.0	0.00005	0.00007	0.00016	-0.00771	-0.00776	-0.00764	-0.00766	-0.00784	-0.00787	-0.00781	-0.00768	-0.00838	-0.00842	-0.00834	-0.00837	0.00079	0.00065	0.00054	0.00076	-0.00818	-0.00831	-0.00835	-0.00828	-0.00922	-0.00922	-0.00933	-0.00926	-0.00920	-0.00916	-0.00917	-0.00904	
534.0	-0.00004	0.00007	0.00008	-0.00778	-0.00790	-0.00776	-0.00786	-0.00784	-0.00785	-0.00799	-0.00786	-0.00853	-0.00857	-0.00861	-0.00863	0.00034	0.00024	0.00016	0.00023	-0.00857	-0.00855	-0.00858	-0.00858	-0.00957	-0.00962	-0.00949	-0.00964	-0.00930	-0.00945	-0.00942	-0.00942	
533.0	0.00015	0.00005	0.00012	-0.00729	-0.00735	-0.00738	-0.00736	-0.00747	-0.00757	-0.00735	-0.00756	-0.00836	-0.00844	-0.00846	-0.00836	0.00003	-0.00001	-0.00010	0.00005	-0.00847	-0.00856	-0.00866	-0.00861	-0.00942	-0.00945	-0.00937	-0.00947	-0.00923	-0.00940	-0.00938	-0.00931	
532.0	0.00014	0.00012	0.00012	-0.00679	-0.00678	-0.00679	-0.00681	-0.00700	-0.00702	-0.00699	-0.00698	-0.00817	-0.00819	-0.00805	-0.00814	0.00039	0.00025	0.00025	0.00035	-0.00832	-0.00826	-0.00833	-0.00840	-0.00920	-0.00928	-0.00931	-0.00932	-0.00898	-0.00910	-0.00904	-0.00908	
531.0	0.00010	0.00006	0.00010	-0.00637	-0.00621	-0.00631	-0.00646	-0.00656	-0.00677	-0.00671	-0.00676	-0.00799	-0.00791	-0.00794	-0.00801	0.00081	0.00091	0.00061	0.00062	-0.00825	-0.00832	-0.00830	-0.00836	-0.00920	-0.00915	-0.00926	-0.00924	-0.00894	-0.00896	-0.00900	-0.00892	
530.0	-0.00003	-0.00002	-0.00011	-0.00605	-0.00605	-0.00605	-0.00615	-0.00640	-0.00653	-0.00660	-0.00658	-0.00806	-0.00817	-0.00805	-0.00813	0.00070	0.00088	0.00085	0.00069	-0.00855	-0.00858	-0.00858	-0.00858	-0.00955	-0.00962	-0.00955	-0.00962	-0.00924	-0.00922	-0.00921	-0.00926	
529.0	0.00004	0.00006	0.00001	-0.00571	-0.00569	-0.00570	-0.00577	-0.00613	-0.00615	-0.00621	-0.00618	-0.00810	-0.00815	-0.00809	-0.00806	0.00016	0.00013	0.00004	-0.00003	-0.00882	-0.00891	-0.00888	-0.00877	-0.00978	-0.00980	-0.00979	-0.00979	-0.00929	-0.00931	-0.00928	-0.00939	
528.0	0.00005	-0.00002	0.00008	-0.00470	-0.00470	-0.00467	-0.00464	-0.00529	-0.00517	-0.00540	-0.00526	-0.00778	-0.00757	-0.00750	-0.00756	0.00031	0.00016	0.00028	0.00027	-0.00857	-0.00861	-0.00859	-0.00855	-0.00951	-0.00957	-0.00962	-0.00957	-0.00895	-0.00897	-0.00897	-0.00894	
527.0	0.00002	-0.00015	-0.00011	-0.00370	-0.00364	-0.00358	-0.00358	-0.00441	-0.00454	-0.00452	-0.00438	-0.00722	-0.00729	-0.00729	-0.00719	0.00060	0.00055	0.00061	0.00053	-0.00846	-0.00859	-0.00858	-0.00852	-0.00955	-0.00939	-0.00952	-0.00951	-0.00882	-0.00879	-0.00883	-0.00893	
526.0	-0.00003	0.00005	-0.00004	-0.00250	-0.00253	-0.00261	-0.00265	-0.00341	-0.00363	-0.00356	-0.00357	-0.00686	-0.00702	-0.00707	-0.00695	0.00071	0.00066	0.00058	0.00070	-0.00845	-0.00858	-0.00870	-0.00865	-0.00954	-0.00953	-0.00973	-0.00966	-0.00871	-0.00879	-0.00868	-0.00881	
525.0	0.00020	0.00009	0.00038	-0.00067	-0.00074	-0.00084	-0.00062	-0.00179	-0.00214	-0.00164	-0.00187	-0.00580	-0.00588	-0.00653	-0.00610	0.00082	0.00114	0.00126	0.00114	-0.00795	-0.00786	-0.00845	-0.00818	-0.00942	-0.00906	-0.00921	-0.00925	-0.00836	-0.00817	-0.00828	-0.00857	
524.0	-0.00001	-0.00002	-0.00002	0.00069	0.00034	0.00055	0.00065	-0.00081	-0.00086	-0.00041	-0.00093	-0.00611	-0.00596	-0.00582	-0.00605	0.00134	0.00130	0.00137	0.00151	-0.00826	-0.00855	-0.00861	-0.00854	-0.01001	-0.00972	-0.00958	-0.00986	-0.00872	-0.00840	-0.00858	-0.00829	
523.0	-0.00024	0.00017	-0.00014	0.00283	0.00285	0.00296	0.00299	0.00111	0.00109	0.00081	0.00078	-0.00501	-0.00513	-0.00503	-0.00521	0.00199	0.00174	0.00204	0.00149	-0.00845	-0.00824	-0.00874	-0.00856	-0.00996	-0.00992	-0.00942	-0.00946	-0.00823	-0.00806	-0.00840	-0.00828	
522.0	-0.00081	-0.00053	-0.00011	0.00512	0.00519	0.00474	0.00506	0.00249	0.00272	0.00259	0.00275	-0.00484	-0.00486	-0.00501	-0.00498	0.00214	0.00206	0.00272	0.00251	-0.00858	-0.00873	-0.00876	-0.00892	-0.00996	-0.01021	-0.00987	-0.00993	-0.00803	-0.00797	-0.00818	-0.00765	
521.0	0.00020	0.00011	0.00059	0.00912	0.00902	0.00907	0.00882	0.00602	0.00586	0.00621	0.00581	-0.00282	-0.00340	-0.00316	-0.00305	0.00382	0.00411	0.00383	0.00390	-0.00753	-0.00772	-0.00786	-0.00806	-0.00863	-0.00914	-0.00892	-0.00907	-0.00695	-0.00738	-0.00719	-0.00696	
520.0	0.00021	-0.00042	-0.00010	0.01221	0.01219	0.01212	0.01198	0.00863	0.00870	0.00860	0.00843	-0.00210	-0.00220	-0.00213	-0.00215	0.00443	0.00446	0.00378	0.00426	-0.00766	-0.00840	-0.00782	-0.00805	-0.00938	-0.00964	-0.00908	-0.00934	-0.00661	-0.00710	-0.00656	-0.00685	
519.0	-0.00010	-0.00006	-0.00043	0.01609	0.01618	0.01620	0.01572	0.01229	0.01221	0.01148	0.01170	-0.00122	-0.00133	-0.00113	-0.00157	0.00487	0.00469	0.00462	0.00434	-0.00800	-0.00800	-0.00814	-0.00827	-0.00915	-0.00951	-0.00937	-0.00950	-0.00641	-0.00661	-0.00645	-0.00674	
518.0	-0.00031	0.00017	-0.00006	0.02127	0.02169	0.02106	0.02088	0.01645	0.01616	0.01621	0.01612	0.00097	0.00041	0.00095	0.00062	0.00598	0.00585	0.00552	0.00621	-0.00798	-0.00785	-0.00804	-0.00791	-0.00923	-0.00940	-0.00912	-0.00957	-0.00533	-0.00553	-0.00587	-0.00615	
517.0	-0.00015	-0.00018	-0.00036	0.02717	0.02703	0.02676	0.02680	0.02103	0.02103	0.02077	0.02061	0.00278	0.00234	0.00257	0.00273	0.00722	0.00733	0.00736	0.00686	-0.00783	-0.00774	-0.00776	-0.00762	-0.00944	-0.00928	-0.00939	-0.00942	-0.00498	-0.00491	-0.00497	-0.00554	
516.0	-0.00037	-0.00006	0.00004	0.03529	0.03474	0.03413	0.03427	0.02712	0.02719	0.02703	0.02688	0.00538	0.00491	0.00498	0.00495	0.00860	0.00928	0.00912	0.00893	-0.00728	-0.00765	-0.00725	-0.00711	-0.00927	-0.00937	-0.00912	-0.00937	-0.00401	-0.00388	-0.00388	-0.00419	
515.0	-0.00037	-0.00051	-0.00035	0.04311	0.04376	0.04287	0.04350	0.03514	0.03455	0.03445	0.03407	0.00738	0.00701	0.00757	0.00757	0.01133	0.01135	0.01142	0.01135	-0.00804	-0.00726	-0.00727	-0.00761	-0.00914	-0.00970	-0.00942	-0.00921	-0.00311	-0.00317	-0.00316	-0.00290	
514.0	-0.00059	-0.00089	-0.00090	0.05258	0.05246	0.05226	0.05212	0.04276	0.04220	0.04175	0.04194	0.01051	0.01050	0.01056	0.01017	0.01318	0.01299	0.01296	0.01303	-0.00735	-0.00703	-0.00740	-0.00772	-0.00925	-0.00941	-0.00957	-0.00915	-0.00214	-0.00235	-0.00214	-0.00201	
513.0	0.00047	0.00066	0.00068	0.06609	0.06545	0.06559	0.06560	0.05375	0.05305	0.05295	0.05282	0.01569	0.01544	0.01527	0.01518	0.01713	0.01653	0.01674	0.01715	-0.00606	-0.00590	-0.00631	-0.00581	-0.00853	-0.00853	-0.00879	-0.00818	0.00061	0.00021	0.00023	0.00031	
512.0	-0.00025	0.00022	-0.00027	0.07893	0.07914	0.07867	0.07919	0.06425	0.06405	0.06361	0.06393	0.01965	0.01964	0.01948	0.01897	0.01944	0.01950	0.01972	0.01967	-0.00575	-0.00544	-0.00610	-0.00592	-0.00860	-0.00874	-0.00863	-0.00866	0.00179	0.00194	0.00206	0.00205	
511.0	-0.00038	-0.00027	-0.00040	0.09493	0.09451	0.09445	0.09472	0.07802	0.07754	0.07651	0.07666	0.02439	0.02422	0.02444	0.02391	0.02382	0.02347	0.02378	0.02323	-0.00536	-0.00519	-0.00539	-0.00597	-0.00839	-0.00832	-0.00854	-0.00802	0.00355	0.00369	0.00331	0.00316	
510.0	0.00045	0.00034	-0.00020	0.11284	0.11251	0.11299	0.11254	0.09209	0.09204	0.09188	0.09175	0.03054	0.03036	0.03016	0.02973	0.02811	0.02841	0.02792	0.02773	-0.00448	-0.00444	-0.00478	-0.00452	-0.00828	-0.00826	-0.00813	-0.00757	0.00664	0.00663	0.00634	0.00651	
509.0	0.00035	0.00040	0.00030	0.13333	0.13287	0.13241	0.13229	0.10897	0.10889	0.10834	0.10781	0.03658	0.03641	0.03718	0.03642	0.03250	0.03270	0.03265	0.03282	-0.00384	-0.00330	-0.00404	-0.00376	-0.00744	-0.00756	-0.00720	-0.00731	0.00947	0.00865	0.00894	0.00910	
508.0	0.00042	0.00008	0.00016	0.15685	0.15635	0.15588	0.15586	0.12865	0.12819	0.12786	0.12748	0.04478	0.04436	0.04444	0.04453	0.03884	0.03819	0.03816	0.03841	-0.00285	-0.00248	-0.00275	-0.00288	-0.00702	-0.00691	-0.00685	-0.00688	0.01253	0.01253	0.01232	0.01228	
507.0	-0.00007	-0.00001	-0.00044	0.18277	0.18251	0.18248	0.18173	0.15064	0.14997	0.14945	0.14938	0.05368	0.05307	0.05322	0.05265	0.04487	0.04469	0.04472	0.04471	-0.00201	-0.00190	-0.00165	-0.00225	-0.00632	-0.00701	-0.00648	-0.00654	0.01629	0.01576	0.01588	0.01559	
506.0	0.00022	-0.00003	0.00005	0.21162	0.21092	0.21075	0.21055	0.17461	0.17360	0.17357	0.17272	0.06268	0.06251	0.06253	0.06255	0.05188	0.05161	0.05164	0.05167	-0.00061	-0.00083	-0.00074	-0.00056	-0.00646	-0.00644	-0.00645	-0.00602	0.01954	0.01945	0.01975	0.02000	
505.0	-0.00013	-0.00014	0.00010	0.24142	0.24097	0.24070	0.24041	0.19940	0.19902	0.19804	0.19745	0.07271	0.07249	0.07230	0.07206	0.05907	0.05918	0.05901	0.05871	0.00063	0.00067	0.00009	-0.00004	-0.00588	-0.00571	-0.00610	-0.00598	0.02378	0.02372	0.02374	0.02408	
504.0	-0.00001	-0.00017	0.00024	0.27534	0.27461	0.27435	0.27384	0.22734	0.22692	0.22599	0.22534	0.08424	0.08337	0.08433	0.08361	0.06811	0.06792	0.06754	0.06758	0.00179	0.00147	0.00154	0.00173	-0.00477	-0.00487	-0.00495	-0.00497	0.02861	0.02854	0.02925	0.02856	
503.0	0.00023	0.00034	-0.00006	0.30806	0.30799	0.30733	0.30696	0.25501	0.25437	0.25361	0.25319	0.09524	0.09513	0.09485	0.09501	0.07615	0.07590	0.07578	0.07563	0.00320	0.00305	0.00325	0.00327	-0.00429	-0.00474	-0.00476	-0.00457	0.03388	0.03363	0.03328	0.03361	
502.0	-0.00058	-0.00077	-0.00016	0.34674	0.34643	0.34590	0.34519	0.28751	0.28677	0.28593	0.28465	0.10784	0.10810	0.10818	0.10758	0.08567	0.08550	0.08568	0.08538	0.00383	0.00441	0.00386	0.00388	-0.00465	-0.00412	-0.00410	-0.00419	0.03857	0.03901	0.03903	0.03866	
501.0	0.00001	-0.00014	-0.00007	0.38911	0.38807	0.38757	0.38679	0.32226	0.32156	0.32063	0.31987	0.12308	0.12301	0.12298	0.12287	0.09683	0.09694	0.09681	0.09681	0.00660	0.00665	0.00668	0.00689	-0.00298	-0.00296	-0.00279	-0.00292	0.04550	0.04527	0.04581	0.04580	
500.0	-0.00007	-0.00010	0.00042	0.42930	0.42906	0.42790	0.42761	0.35636	0.35536	0.35463	0.35368	0.13721	0.13684	0.13711	0.13669	0.10790	0.10773	0.10766	0.10753	0.00882	0.00854	0.00839	0.00858	-0.00220	-0.00234	-0.00224	-0.00236	0.05149	0.05141	0.05178	0.05214	
499.0	-0.00009	-0.00041	0.00002	0.46839	0.46804	0.46724	0.46702	0.38910	0.38809	0.38692	0.38653	0.15141	0.15137	0.15152	0.15140	0.11867	0.11837	0.11836	0.11854	0.01031	0.01053	0.01028	0.01063	-0.00140	-0.00120	-0.00151	-0.00167	0.05811	0.05837	0.05840	0.05801	
498.0	0.00018	0.00000	0.00006	0.51005	0.50944	0.50867	0.50817	0.42415	0.42293	0.42208	0.42108	0.16716	0.16698	0.16687	0.16651	0.13026	0.13034	0.13020	0.13010	0.01289	0.01281	0.01262	0.01280	-0.00030	-0.00011	-0.00012	-0.00029	0.06549	0.06541	0.06545	0.06547	
497.0	0.00004	0.00008	0.00013	0.54540	0.54462	0.54406	0.54365	0.45394	0.45289	0.45165	0.45090	0.18035	0.18025	0.18015	0.17987	0.14063	0.14051	0.14044	0.14028	0.01473	0.01460	0.01471	0.01468	0.00046	0.00047	0.00058	0.00067	0.07168	0.07166	0.07162	0.07166	
496.0	0.00014	0.00020	0.00015	0.58581	0.58528	0.58476	0.58403	0.48810	0.48704	0.48604	0.48495	0.19629	0.19620	0.19617	0.19606	0.15277	0.15271	0.15258	0.15258	0.01712	0.01707	0.01711	0.01697	0.00175	0.00166	0.00162	0.00161	0.07924	0.07921	0.07927	0.07937	
495.0	0.00015	0.00010	0.00008	0.62339	0.62280	0.62202	0.62156	0.51984	0.51875	0.51785	0.51674	0.21156	0.21173	0.21162	0.21142	0.16448	0.16454	0.16435	0.16423	0.01959	0.01943	0.01951	0.01942	0.00272	0.00271	0.00270	0.00276	0.08669	0.08663	0.08666	0.08656	
494.0	-0.00005	-0.00003	0.00011	0.65834	0.65772	0.65709	0.65658	0.54972	0.54864	0.54747	0.54647	0.22654	0.22653	0.22663	0.22631	0.17622	0.17617	0.17608	0.17586	0.02202	0.02205	0.02207	0.02206	0.00393	0.00394	0.00392	0.00398	0.09409	0.09406	0.09406	0.09412	
493.0	0.00002	0.00013	0.00003	0.68940	0.68881	0.68824	0.68773	0.57645	0.57530	0.57410	0.57319	0.24057	0.24053	0.24051	0.24038	0.18707	0.18708	0.18705	0.18697	0.02453	0.02460	0.02445	0.02444	0.00502	0.00501	0.00505	0.00506	0.10123	0.10124	0.10117	0.10116	
492.0	0.00005	0.00002	0.00001	0.71338	0.71291	0.71229	0.71186	0.59687	0.59576	0.59457	0.59372	0.25191	0.25190	0.25189	0.25174	0.19605	0.19587	0.19586	0.19573	0.02636	0.02637	0.02628	0.02628	0.00577	0.00577	0.00574	0.00567	0.10711	0.10718	0.10706	0.10710	
491.0	0.00020	0.00007	0.00011	0.73446	0.73402	0.73341	0.73297	0.61525	0.61418	0.61297	0.61213	0.26288	0.26295	0.26290	0.26288	0.20477	0.20472	0.20461	0.20454	0.02851	0.02855	0.02848	0.02840	0.00690	0.00686	0.00690	0.00683	0.11305	0.11308	0.11307	0.11316	
490.0	0.00004	0.00002	0.00007	0.75791	0.75751	0.75697	0.75638	0.63575	0.63462	0.63363	0.63266	0.27636	0.27644	0.27641	0.27631	0.21538	0.21528	0.21524	0.21519	0.03149	0.03155	0.03150	0.03147	0.00833	0.00835	0.00840	0.00833	0.12076	0.12081	0.12078	0.12078	
489.0	0.00007	0.00009	0.00007	0.77365	0.77336	0.77276	0.77244	0.64969	0.64866	0.64760	0.64674	0.28647	0.28656	0.28655	0.28643	0.22365	0.22351	0.22350	0.22349	0.03375	0.03370	0.03368	0.03364	0.00929	0.00939	0.00934	0.00937	0.12676	0.12671	0.12676	0.12677	
488.0	0.00000	-0.00006	-0.00003	0.78459	0.78409	0.78380	0.78343	0.65937	0.65849	0.65750	0.65663	0.29464	0.29474	0.29474	0.29472	0.23037	0.23033	0.23022	0.23022	0.03543	0.03539	0.03541	0.03535	0.01003	0.01007	0.01012	0.01004	0.13176	0.13168	0.13169	0.13176	
487.0	-0.00001	0.00002	0.00008	0.79233	0.79193	0.79155	0.79118	0.66653	0.66564	0.66471	0.66395	0.30204	0.30216	0.30217	0.30220	0.23649	0.23640	0.23640	0.23639	0.03742	0.03745	0.03743	0.03738	0.01115	0.01116	0.01107	0.01108	0.13660	0.13664	0.13658	0.13650	
486.0	0.00001	0.00009	-0.00003	0.79768	0.79742	0.79699	0.79660	0.67182	0.67096	0.67015	0.66937	0.30905	0.30920	0.30919	0.30925	0.24233	0.24226	0.24226	0.24227	0.03962	0.03958	0.03956	0.03959	0.01230	0.01231	0.01233	0.01226	0.14153	0.14148	0.14153	0.14145	
485.0	0.00001	0.00005	0.00001	0.79987	0.79969	0.79923	0.79910	0.67450	0.67374	0.67306	0.67230	0.31506	0.31518	0.31528	0.31535	0.24756	0.24747	0.24749	0.24742	0.04136	0.04129	0.04128	0.04122	0.01298	0.01299	0.01301	0.01299	0.14591	0.14591	0.14582	0.14586	
484.0	-0.00001	0.00003	0.00006	0.79930	0.79905	0.79882	0.79857	0.67443	0.67369	0.67303	0.67237	0.31870	0.31887	0.31893	0.31904	0.25098	0.25091	0.25088	0.25081	0.04244	0.04238	0.04238	0.04229	0.01344	0.01348	0.01340	0.01345	0.14867	0.14870	0.14869	0.14868	
483.0	0.00009	0.00011	0.00006	0.79669	0.79648	0.79617	0.79603	0.67281	0.67222	0.67152	0.67093	0.32236	0.32246	0.32258	0.32255	0.25419	0.25412	0.25412	0.25410	0.04399	0.04390	0.04390	0.04387	0.01439	0.01440	0.01440	0.01439	0.15179	0.15177	0.15181	0.15180	
482.0	0.00002	-0.00003	0.00012	0.79146	0.79135	0.79115	0.79101	0.66914	0.66862	0.66808	0.66754	0.32500	0.32510	0.32521	0.32533	0.25662	0.25654	0.25651	0.25658	0.04528	0.04522	0.04518	0.04523	0.01514	0.01507	0.01507	0.01513	0.15448	0.15444	0.15452	0.15446	
481.0	0.00010	0.00014	0.00021	0.78414	0.78386	0.78388	0.78359	0.66354	0.66304	0.66253	0.66218	0.32697	0.32707	0.32723	0.32731	0.25851	0.25857	0.25865	0.25856	0.04662	0.04663	0.04655	0.04657	0.01583	0.01580	0.01583	0.01587	0.15692	0.15702	0.15700	0.15691	
480.0	0.00007	0.00009	0.00003	0.77553	0.77534	0.77527	0.77512	0.65688	0.65658	0.65600	0.65551	0.32747	0.32776	0.32784	0.32801	0.25950	0.25947	0.25945	0.25945	0.04748	0.04746	0.04745	0.04736	0.01616	0.01623	0.01623	0.01629	0.15868	0.15857	0.15854	0.15857	
479.0	-0.00006	-0.00011	-0.00010	0.76515	0.76513	0.76506	0.76492	0.64871	0.64835	0.64793	0.64750	0.32713	0.32729	0.32748	0.32764	0.25970	0.25959	0.25966	0.25963	0.04808	0.04801	0.04803	0.04789	0.01651	0.01657	0.01650	0.01653	0.15956	0.15954	0.15958	0.15947	
478.0	0.00007	0.00003	0.00012	0.75378	0.75375	0.75361	0.75346	0.63959	0.63916	0.63890	0.63860	0.32627	0.32668	0.32668	0.32688	0.25951	0.25951	0.25952	0.25939	0.04873	0.04865	0.04869	0.04860	0.01696	0.01704	0.01695	0.01701	0.16033	0.16037	0.16020	0.16029	
477.0	0.00009	0.00003	-0.00005	0.74246	0.74234	0.74249	0.74238	0.63031	0.63014	0.62978	0.62954	0.32459	0.32481	0.32486	0.32515	0.25847	0.25847	0.25834	0.25839	0.04894	0.04882	0.04880	0.04886	0.01698	0.01714	0.01697	0.01694	0.16036	0.16027	0.16031	0.16023	
476.0	0.00010	0.00013	0.00006	0.73011	0.73009	0.73024	0.73012	0.62026	0.61998	0.61980	0.61962	0.32235	0.32259	0.32279	0.32299	0.25706	0.25709	0.25698	0.25709	0.04912	0.04907	0.04905	0.04904	0.01727	0.01720	0.01728	0.01730	0.16008	0.16013	0.16013	0.16021	
475.0	0.00005	0.00008	0.00004	0.71812	0.71826	0.71819	0.71842	0.61037	0.61024	0.60995	0.60987	0.31959	0.31995	0.32007	0.32020	0.25520	0.25522	0.25506	0.25512	0.04896	0.04901	0.04892	0.04888	0.01721	0.01720	0.01709	0.01719	0.15934	0.15945	0.15933	0.15943	
474.0	0.00015	0.00008	0.00015	0.70575	0.70588	0.70602	0.70598	0.60026	0.60009	0.59982	0.59971	0.31657	0.31686	0.31707	0.31711	0.25306	0.25303	0.25311	0.25310	0.04903	0.04897	0.04902	0.04888	0.01728	0.01721	0.01723	0.01724	0.15860	0.15854	0.15854	0.15850	
473.0	-0.00003	-0.00001	0.00001	0.69321	0.69320	0.69336	0.69331	0.58970	0.58949	0.58944	0.58920	0.31306	0.31323	0.31334	0.31349	0.25044	0.25048	0.25059	0.25038	0.04873	0.04858	0.04845	0.04853	0.01705	0.01713	0.01714	0.01716	0.15731	0.15732	0.15726	0.15735	
472.0	0.00004	0.00006	0.00012	0.68119	0.68119	0.68128	0.68129	0.57965	0.57957	0.57943	0.57941	0.30944	0.30963	0.30978	0.30997	0.24782	0.24793	0.24781	0.24779	0.04830	0.04826	0.04824	0.04822	0.01701	0.01706	0.01700	0.01704	0.15597	0.15590	0.15591	0.15592	
471.0	0.00009	0.00005	-0.00004	0.67000	0.67012	0.67023	0.67036	0.57045	0.57032	0.57015	0.57010	0.30563	0.30601	0.30611	0.30624	0.24508	0.24503	0.24512	0.24512	0.04780	0.04787	0.04777	0.04775	0.01677	0.01678	0.01677	0.01674	0.15446	0.15436	0.15451	0.15437	
470.0	-0.00004	-0.00009	0.00008	0.65896	0.65905	0.65899	0.65916	0.56104	0.56096	0.56081	0.56084	0.30191	0.30222	0.30230	0.30254	0.24230	0.24233	0.24215	0.24230	0.04738	0.04735	0.04731	0.04739	0.01664	0.01648	0.01650	0.01651	0.15285	0.15278	0.15278	0.15289	
469.0	0.00011	-0.00010	0.00000	0.64950	0.64953	0.64963	0.64962	0.55302	0.55297	0.55288	0.55279	0.29868	0.29892	0.29899	0.29920	0.23982	0.23984	0.23977	0.23985	0.04699	0.04699	0.04693	0.04693	0.01645	0.01641	0.01643	0.01638	0.15132	0.15144	0.15133	0.15137	
468.0	0.00017	0.00007	0.00010	0.64007	0.64004	0.64025	0.64030	0.54520	0.54515	0.54503	0.54505	0.29529	0.29550	0.29569	0.29583	0.23726	0.23731	0.23738	0.23730	0.04654	0.04636	0.04651	0.04650	0.01615	0.01621	0.01604	0.01621	0.14995	0.14982	0.14998	0.14986	
467.0	0.00010	0.00011	0.00008	0.63128	0.63115	0.63131	0.63138	0.53778	0.53767	0.53770	0.53762	0.29216	0.29239	0.29250	0.29268	0.23482	0.23497	0.23475	0.23482	0.04607	0.04604	0.04606	0.04599	0.01589	0.01591	0.01599	0.01601	0.14839	0.14846	0.14828	0.14833	
466.0	-0.00006	0.00008	0.00000	0.62380	0.62387	0.62388	0.62391	0.53142	0.53141	0.53147	0.53134	0.28941	0.28971	0.28973	0.28991	0.23270	0.23277	0.23279	0.23273	0.04568	0.04572	0.04552	0.04555	0.01570	0.01568	0.01573	0.01567	0.14713	0.14719	0.14719	0.14711	
465.0	0.00004	0.00010	0.00002	0.61692	0.61701	0.61718	0.61715	0.52579	0.52568	0.52564	0.52567	0.28709	0.28733	0.28743	0.28752	0.23098	0.23105	0.23100	0.23101	0.04534	0.04524	0.04525	0.04517	0.01557	0.01549	0.01553	0.01555	0.14604	0.14599	0.14593	0.14606	
464.0	0.00005	0.00006	0.00002	0.61101	0.61135	0.61127	0.61134	0.52080	0.52076	0.52083	0.52073	0.28510	0.28534	0.28542	0.28555	0.22956	0.22948	0.22948	0.22956	0.04507	0.04505	0.04505	0.04497	0.01545	0.01539	0.01540	0.01539	0.14512	0.14522	0.14508	0.14515	
463.0	0.00010	0.00006	0.00004	0.60597	0.60595	0.60601	0.60597	0.51650	0.51638	0.51650	0.51645	0.28346	0.28374	0.28393	0.28394	0.22829	0.22830	0.22824	0.22831	0.04491	0.04479	0.04473	0.04464	0.01527	0.01522	0.01523	0.01522	0.14438	0.14442	0.14439	0.14447	
462.0	0.00005	0.00001	0.00014	0.60104	0.60124	0.60122	0.60122	0.51244	0.51242	0.51238	0.51241	0.28217	0.28234	0.28261	0.28258	0.22731	0.22738	0.22736	0.22731	0.04477	0.04468	0.04459	0.04448	0.01514	0.01506	0.01509	0.01513	0.14381	0.14384	0.14381	0.14382	
461.0	0.00000	0.00002	0.00007	0.59654	0.59649	0.59660	0.59672	0.50867	0.50853	0.50858	0.50855	0.28102	0.28126	0.28131	0.28143	0.22655	0.22648	0.22652	0.22649	0.04446	0.04432	0.04434	0.04434	0.01489	0.01486	0.01488	0.01482	0.14327	0.14328	0.14331	0.14321	
460.0	0.00002	0.00006	0.00001	0.59294	0.59301	0.59316	0.59325	0.50577	0.50572	0.50571	0.50579	0.28029	0.28052	0.28071	0.28069	0.22602	0.22606	0.22595	0.22594	0.04430	0.04428	0.04422	0.04424	0.01480	0.01476	0.01478	0.01473	0.14306	0.14299	0.14304	0.14299	
459.0	0.00010	0.00013	0.00010	0.58925	0.58937	0.58944	0.58950	0.50283	0.50274	0.50278	0.50281	0.27987	0.28004	0.28013	0.28016	0.22571	0.22562	0.22577	0.22569	0.04439	0.04434	0.04431	0.04432	0.01478	0.01483	0.01480	0.01474	0.14291	0.14288	0.14290	0.14291	
458.0	0.00010	0.00004	0.00006	0.58523	0.58519	0.58545	0.58556	0.49953	0.49955	0.49956	0.49969	0.27936	0.27953	0.27967	0.27967	0.22539	0.22541	0.22549	0.22537	0.04450	0.04450	0.04441	0.04436	0.01479	0.01484	0.01479	0.01480	0.14296	0.14296	0.14289	0.14296	
457.0	0.00017	0.00016	0.00003	0.58124	0.58133	0.58148	0.58154	0.49636	0.49631	0.49642	0.49642	0.27886	0.27906	0.27919	0.27915	0.22521	0.22517	0.22516	0.22522	0.04471	0.04454	0.04459	0.04461	0.01487	0.01492	0.01493	0.01490	0.14309	0.14300	0.14296	0.14293	
456.0	0.00004	0.00002	0.00008	0.57605	0.57623	0.57633	0.57646	0.49216	0.49220	0.49231	0.49238	0.27808	0.27836	0.27845	0.27846	0.22485	0.22475	0.22484	0.22483	0.04474	0.04469	0.04474	0.04466	0.01499	0.01493	0.01483	0.01492	0.14307	0.14304	0.14310	0.14302	
455.0	-0.00015	-0.00008	-0.00012	0.57077	0.57094	0.57105	0.57121	0.48781	0.48793	0.48796	0.48811	0.27700	0.27739	0.27738	0.27737	0.22406	0.22424	0.22417	0.22420	0.04475	0.04475	0.04464	0.04459	0.01494	0.01493	0.01491	0.01489	0.14287	0.14292	0.14288	0.14279	
454.0	0.00008	0.00010	-0.00003	0.56480	0.56499	0.56513	0.56534	0.48300	0.48305	0.48323	0.48331	0.27590	0.27607	0.27623	0.27629	0.22349	0.22356	0.22344	0.22345	0.04494	0.04496	0.04490	0.04485	0.01518	0.01517	0.01506	0.01515	0.14282	0.14287	0.14282	0.14289	
453.0	-0.00006	-0.00014	-0.00011	0.55828	0.55847	0.55862	0.55873	0.47759	0.47764	0.47784	0.47801	0.27415	0.27435	0.27451	0.27457	0.22228	0.22230	0.22233	0.22233	0.04477	0.04476	0.04468	0.04468	0.01508	0.01508	0.01499	0.01503	0.14239	0.14230	0.14238	0.14226	
452.0	0.00007	-0.00001	0.00003	0.55138	0.55169	0.55190	0.55198	0.47208	0.47216	0.47245	0.47248	0.27230	0.27259	0.27268	0.27287	0.22096	0.22099	0.22099	0.22105	0.04483	0.04483	0.04471	0.04471	0.01524	0.01525	0.01523	0.01519	0.14186	0.14180	0.14183	0.14174	
451.0	0.00002	-0.00005	-0.00002	0.54247	0.54286	0.54290	0.54307	0.46453	0.46476	0.46493	0.46507	0.26949	0.26974	0.26981	0.26992	0.21895	0.21888	0.21892	0.21897	0.04449	0.04446	0.04444	0.04448	0.01516	0.01510	0.01518	0.01513	0.14068	0.14076	0.14080	0.14078	
450.0	-0.00001	0.00001	0.00007	0.53259	0.53288	0.53304	0.53322	0.45621	0.45643	0.45665	0.45682	0.26591	0.26615	0.26636	0.26644	0.21628	0.21629	0.21632	0.21632	0.04413	0.04407	0.04408	0.04403	0.01501	0.01505	0.01501	0.01490	0.13936	0.13934	0.13935	0.13929	
449.0	0.00001	0.00006	0.00000	0.52208	0.52234	0.52252	0.52268	0.44729	0.44753	0.44787	0.44796	0.26190	0.26214	0.26229	0.26244	0.21328	0.21337	0.21336	0.21329	0.04359	0.04348	0.04348	0.04358	0.01475	0.01477	0.01478	0.01471	0.13759	0.13753	0.13751	0.13748	
448.0	0.00008	0.00003	0.00002	0.51071	0.51099	0.51122	0.51145	0.43777	0.43806	0.43834	0.43849	0.25731	0.25760	0.25777	0.25781	0.20982	0.20986	0.20985	0.20985	0.04288	0.04286	0.04281	0.04278	0.01449	0.01449	0.01442	0.01448	0.13541	0.13539	0.13539	0.13544	
447.0	-0.00002	-0.00002	0.00003	0.49895	0.49913	0.49943	0.49960	0.42775	0.42810	0.42830	0.42842	0.25231	0.25257	0.25270	0.25281	0.20594	0.20587	0.20594	0.20595	0.04198	0.04197	0.04191	0.04191	0.01405	0.01409	0.01407	0.01406	0.13297	0.13293	0.13290	0.13291	
446.0	-0.00002	0.00004	0.00000	0.48645	0.48672	0.48698	0.48706	0.41711	0.41743	0.41759	0.41786	0.24679	0.24711	0.24722	0.24730	0.20174	0.20169	0.20173	0.20166	0.04111	0.04101	0.04107	0.04100	0.01365	0.01376	0.01369	0.01368	0.13022	0.13020	0.13025	0.13018	
445.0	-0.00003	-0.00004	0.00004	0.47259	0.47281	0.47301	0.47324	0.40537	0.40555	0.40581	0.40611	0.24056	0.24084	0.24102	0.24112	0.19679	0.19679	0.19684	0.19673	0.04007	0.03999	0.03999	0.03998	0.01324	0.01325	0.01325	0.01321	0.12718	0.12715	0.12712	0.12706	
444.0	0.00014	0.00006	0.00006	0.45682	0.45695	0.45715	0.45729	0.39175	0.39206	0.39233	0.39248	0.23343	0.23350	0.23363	0.23381	0.19110	0.19100	0.19109	0.19103	0.03882	0.03880	0.03882	0.03876	0.01274	0.01273	0.01266	0.01265	0.12342	0.12339	0.12349	0.12338	
443.0	0.00001	0.00010	0.00014	0.44262	0.44290	0.44303	0.44322	0.37969	0.38002	0.38026	0.38051	0.22653	0.22677	0.22694	0.22705	0.18572	0.18589	0.18579	0.18583	0.03760	0.03758	0.03754	0.03757	0.01223	0.01220	0.01220	0.01215	0.11998	0.12003	0.11992	0.12001	
442.0	0.00011	0.00013	0.00009	0.42843	0.42868	0.42885	0.42907	0.36756	0.36787	0.36804	0.36835	0.21970	0.21989	0.22015	0.22023	0.18042	0.18044	0.18043	0.18043	0.03637	0.03636	0.03630	0.03626	0.01166	0.01165	0.01163	0.01160	0.11637	0.11641	0.11632	0.11643	
441.0	-0.00006	0.00009	0.00003	0.41390	0.41415	0.41436	0.41457	0.35515	0.35541	0.35557	0.35587	0.21260	0.21277	0.21293	0.21314	0.17480	0.17475	0.17476	0.17479	0.03504	0.03505	0.03504	0.03506	0.01106	0.01105	0.01107	0.01105	0.11273	0.11269	0.11264	0.11269	
440.0	0.00010	0.00006	0.00011	0.40063	0.40088	0.40102	0.40116	0.34367	0.34400	0.34411	0.34437	0.20595	0.20620	0.20633	0.20656	0.16942	0.16954	0.16940	0.16950	0.03387	0.03380	0.03379	0.03376	0.01056	0.01055	0.01050	0.01051	0.10913	0.10922	0.10917	0.10909	
439.0	0.00008	0.00006	0.00017	0.38616	0.38643	0.38655	0.38676	0.33123	0.33147	0.33168	0.33197	0.19880	0.19902	0.19910	0.19930	0.16379	0.16372	0.16364	0.16360	0.03243	0.03230	0.03226	0.03234	0.00974	0.00986	0.00976	0.00978	0.10523	0.10526	0.10528	0.10525	
438.0	-0.00002	0.00000	0.00005	0.37172	0.37181	0.37198	0.37218	0.31881	0.31908	0.31927	0.31949	0.19150	0.19158	0.19178	0.19190	0.15779	0.15781	0.15776	0.15784	0.03091	0.03091	0.03089	0.03084	0.00905	0.00905	0.00893	0.00905	0.10117	0.10120	0.10117	0.10111	
437.0	0.00013	0.00005	0.00016	0.35932	0.35947	0.35977	0.35988	0.30819	0.30852	0.30865	0.30895	0.18520	0.18540	0.18545	0.18561	0.15279	0.15282	0.15288	0.15280	0.02980	0.02983	0.02976	0.02970	0.00865	0.00862	0.00861	0.00853	0.09790	0.09786	0.09788	0.09787	
436.0	0.00000	0.00005	0.00005	0.34698	0.34720	0.34740	0.34755	0.29771	0.29789	0.29802	0.29820	0.17893	0.17906	0.17918	0.17938	0.14787	0.14792	0.14797	0.14795	0.02845	0.02848	0.02839	0.02847	0.00789	0.00788	0.00791	0.00790	0.09452	0.09437	0.09448	0.09447	
435.0	0.00004	-0.00003	0.00001	0.33520	0.33536	0.33558	0.33566	0.28757	0.28777	0.28787	0.28802	0.17292	0.17305	0.17322	0.17324	0.14304	0.14310	0.14307	0.14304	0.02719	0.02721	0.02725	0.02721	0.00736	0.00728	0.00735	0.00727	0.09115	0.09121	0.09113	0.09118	
434.0	0.00002	0.00001	-0.00002	0.32481	0.32496	0.32523	0.32526	0.27861	0.27885	0.27896	0.27917	0.16761	0.16782	0.16785	0.16809	0.13874	0.13880	0.13880	0.13874	0.02616	0.02615	0.02622	0.02608	0.00684	0.00682	0.00674	0.00678	0.08819	0.08817	0.08819	0.08815	
433.0	-0.00001	0.00013	0.00006	0.31424	0.31443	0.31455	0.31474	0.26962	0.26974	0.26988	0.27012	0.16227	0.16244	0.16259	0.16261	0.13447	0.13438	0.13443	0.13447	0.02525	0.02510	0.02514	0.02508	0.00639	0.00641	0.00636	0.00630	0.08541	0.08542	0.08536	0.08538	
432.0	0.00004	0.00008	0.00007	0.30440	0.30459	0.30479	0.30480	0.26099	0.26123	0.26136	0.26154	0.15728	0.15758	0.15755	0.15768	0.13058	0.13058	0.13053	0.13052	0.02430	0.02419	0.02422	0.02429	0.00591	0.00595	0.00597	0.00593	0.08271	0.08273	0.08265	0.08276	
431.0	0.00003	0.00008	0.00004	0.29562	0.29569	0.29595	0.29604	0.25342	0.25355	0.25383	0.25393	0.15285	0.15301	0.15305	0.15311	0.12688	0.12692	0.12691	0.12687	0.02336	0.02326	0.02329	0.02326	0.00555	0.00552	0.00550	0.00550	0.08029	0.08030	0.08020	0.08025	
430.0	0.00006	0.00004	0.00014	0.28735	0.28761	0.28769	0.28796	0.24640	0.24659	0.24679	0.24701	0.14871	0.14894	0.14895	0.14902	0.12367	0.12365	0.12376	0.12361	0.02256	0.02247	0.02251	0.02248	0.00515	0.00512	0.00507	0.00515	0.07808	0.07809	0.07802	0.07810	
429.0	0.00007	0.00003	0.00008	0.27936	0.27956	0.27963	0.27974	0.23949	0.23968	0.23975	0.24009	0.14468	0.14477	0.14476	0.14488	0.12038	0.12047	0.12046	0.12046	0.02157	0.02157	0.02163	0.02156	0.00465	0.00461	0.00464	0.00459	0.07570	0.07576	0.07575	0.07576	
428.0	0.00005	-0.00005	0.00004	0.27181	0.27203	0.27206	0.27211	0.23292	0.23320	0.23343	0.23353	0.14079	0.14095	0.14096	0.14112	0.11730	0.11735	0.11736	0.11740	0.02081	0.02083	0.02080	0.02079	0.00424	0.00430	0.00416	0.00426	0.07363	0.07366	0.07369	0.07360	
427.0	0.00002	0.00000	-0.00001	0.26432	0.26444	0.26461	0.26471	0.22654	0.22676	0.22692	0.22710	0.13705	0.13716	0.13723	0.13733	0.11435	0.11431	0.11440	0.11429	0.02015	0.02013	0.02011	0.02004	0.00388	0.00394	0.00398	0.00389	0.07169	0.07167	0.07162	0.07159	
426.0	-0.00002	-0.00001	-0.00004	0.25695	0.25717	0.25731	0.25744	0.22020	0.22051	0.22070	0.22086	0.13331	0.13341	0.13350	0.13352	0.11141	0.11145	0.11138	0.11133	0.01941	0.01933	0.01934	0.01930	0.00351	0.00349	0.00345	0.00348	0.06955	0.06959	0.06963	0.06966	
425.0	0.00012	0.00011	0.00004	0.24989	0.25006	0.25020	0.25030	0.21419	0.21434	0.21448	0.21468	0.12974	0.12980	0.12988	0.13000	0.10851	0.10841	0.10845	0.10843	0.01863	0.01861	0.01863	0.01861	0.00317	0.00319	0.00317	0.00322	0.06763	0.06769	0.06765	0.06759	
424.0	0.00005	0.00004	0.00009	0.24293	0.24310	0.24320	0.24331	0.20818	0.20837	0.20846	0.20871	0.12622	0.12628	0.12638	0.12643	0.10559	0.10558	0.10558	0.10563	0.01793	0.01799	0.01793	0.01795	0.00288	0.00293	0.00286	0.00289	0.06578	0.06584	0.06577	0.06569	
423.0	0.00007	0.00005	0.00007	0.23577	0.23594	0.23602	0.23619	0.20201	0.20221	0.20238	0.20256	0.12258	0.12259	0.12264	0.12279	0.10267	0.10277	0.10269	0.10264	0.01723	0.01728	0.01716	0.01721	0.00255	0.00251	0.00253	0.00258	0.06379	0.06383	0.06376	0.06374	
422.0	-0.00005	0.00005	0.00001	0.22785	0.22795	0.22814	0.22815	0.19525	0.19534	0.19554	0.19569	0.11835	0.11849	0.11849	0.11858	0.09930	0.09934	0.09935	0.09927	0.01631	0.01630	0.01628	0.01627	0.00203	0.00209	0.00206	0.00208	0.06135	0.06140	0.06145	0.06139	
421.0	0.00003	0.00007	-0.00001	0.21993	0.22008	0.22031	0.22035	0.18843	0.18859	0.18866	0.18888	0.11424	0.11445	0.11441	0.11447	0.09587	0.09583	0.09583	0.09584	0.01546	0.01540	0.01538	0.01541	0.00151	0.00154	0.00159	0.00158	0.05906	0.05911	0.05914	0.05907	
420.0	0.00003	0.00014	0.00011	0.21247	0.21259	0.21270	0.21282	0.18193	0.18211	0.18230	0.18249	0.11030	0.11049	0.11057	0.11053	0.09267	0.09270	0.09272	0.09272	0.01469	0.01458	0.01472	0.01463	0.00125	0.00127	0.00128	0.00125	0.05705	0.05704	0.05697	0.05694	
419.0	0.00005	-0.00005	-0.00001	0.20411	0.20427	0.20445	0.20444	0.17484	0.17490	0.17510	0.17526	0.10590	0.10600	0.10604	0.10610	0.08909	0.08913	0.08912	0.08906	0.01372	0.01373	0.01365	0.01364	0.00065	0.00075	0.00079	0.00077	0.05446	0.05446	0.05448	0.05443	
418.0	0.00017	0.00008	0.00011	0.19650	0.19654	0.19670	0.19674	0.16809	0.16823	0.16848	0.16860	0.10185	0.10193	0.10190	0.10197	0.08584	0.08578	0.08575	0.08578	0.01290	0.01286	0.01287	0.01290	0.00040	0.00033	0.00044	0.00037	0.05225	0.05222	0.05217	0.05225	
417.0	0.00012	0.00014	0.00013	0.18897	0.18904	0.18916	0.18939	0.16164	0.16174	0.16186	0.16201	0.09770	0.09793	0.09801	0.09798	0.08255	0.08263	0.08247	0.08261	0.01202	0.01201	0.01207	0.01199	-0.00003	-0.00005	-0.00007	-0.00007	0.04999	0.04995	0.04993	0.04994	
416.0	0.00004	0.00012	0.00002	0.18080	0.18101	0.18098	0.18101	0.15451	0.15470	0.15488	0.15504	0.09332	0.09331	0.09348	0.09351	0.07910	0.07911	0.07903	0.07898	0.01105	0.01093	0.01095	0.01091	-0.00065	-0.00065	-0.00063	-0.00071	0.04725	0.04721	0.04721	0.04723	
415.0	0.00020	-0.00003	0.00010	0.17297	0.17293	0.17307	0.17317	0.14767	0.14786	0.14803	0.14809	0.08899	0.08910	0.08918	0.08919	0.07556	0.07553	0.07546	0.07544	0.01001	0.01004	0.01010	0.00995	-0.00115	-0.00117	-0.00111	-0.00112	0.04476	0.04463	0.04485	0.04473	
414.0	0.00006	0.00015	0.00004	0.16607	0.16611	0.16624	0.16627	0.14176	0.14197	0.14202	0.14212	0.08524	0.08526	0.08544	0.08539	0.07249	0.07253	0.07247	0.07256	0.00925	0.00915	0.00921	0.00914	-0.00154	-0.00158	-0.00164	-0.00159	0.04260	0.04266	0.04262	0.04257	
413.0	0.00006	0.00009	0.00015	0.15912	0.15923	0.15927	0.15928	0.13577	0.13586	0.13607	0.13615	0.08164	0.08171	0.08166	0.08170	0.06957	0.06965	0.06958	0.06966	0.00849	0.00855	0.00851	0.00841	-0.00193	-0.00198	-0.00197	-0.00190	0.04043	0.04055	0.04045	0.04047	
412.0	0.00001	0.00005	0.00004	0.15260	0.15261	0.15271	0.15278	0.13019	0.13029	0.13042	0.13043	0.07792	0.07804	0.07810	0.07819	0.06691	0.06690	0.06699	0.06685	0.00779	0.00781	0.00776	0.00777	-0.00220	-0.00218	-0.00220	-0.00216	0.03856	0.03860	0.03862	0.03866	
411.0	0.00003	0.00007	0.00008	0.14647	0.14658	0.14662	0.14663	0.12490	0.12494	0.12511	0.12528	0.07468	0.07478	0.07478	0.07480	0.06420	0.06418	0.06405	0.06410	0.00713	0.00700	0.00707	0.00700	-0.00261	-0.00251	-0.00248	-0.00252	0.03671	0.03671	0.03682	0.03671	
410.0	0.00007	-0.00007	0.00014	0.14101	0.14095	0.14107	0.14111	0.12017	0.12023	0.12043	0.12052	0.07172	0.07172	0.07175	0.07181	0.06161	0.06166	0.06149	0.06165	0.00659	0.00642	0.00649	0.00646	-0.00273	-0.00289	-0.00277	-0.00282	0.03520	0.03524	0.03511	0.03513	
409.0	0.00014	0.00012	0.00014	0.13612	0.13611	0.13619	0.13625	0.11589	0.11606	0.11615	0.11625	0.06897	0.06903	0.06908	0.06911	0.05967	0.05949	0.05947	0.05952	0.00611	0.00599	0.00607	0.00594	-0.00286	-0.00302	-0.00297	-0.00293	0.03374	0.03377	0.03377	0.03377	
408.0	0.00005	0.00011	0.00010	0.13149	0.13157	0.13172	0.13167	0.11211	0.11213	0.11222	0.11235	0.06657	0.06659	0.06657	0.06656	0.05774	0.05764	0.05766	0.05774	0.00557	0.00546	0.00558	0.00554	-0.00319	-0.00307	-0.00318	-0.00308	0.03252	0.03246	0.03244	0.03244	
407.0	0.00006	0.00008	0.00013	0.12765	0.12765	0.12784	0.12784	0.10873	0.10880	0.10891	0.10902	0.06446	0.06448	0.06445	0.06445	0.05606	0.05598	0.05597	0.05606	0.00502	0.00512	0.00509	0.00509	-0.00329	-0.00333	-0.00334	-0.00345	0.03132	0.03119	0.03129	0.03120	
406.0	0.00014	0.00014	0.00000	0.12441	0.12455	0.12459	0.12462	0.10599	0.10603	0.10611	0.10628	0.06259	0.06264	0.06280	0.06277	0.05461	0.05447	0.05466	0.05446	0.00474	0.00467	0.00467	0.00464	-0.00358	-0.00357	-0.00361	-0.00355	0.03024	0.03028	0.03021	0.03020	
405.0	0.00009	0.00007	0.00007	0.12191	0.12189	0.12196	0.12198	0.10369	0.10370	0.10384	0.10388	0.06116	0.06127	0.06122	0.06125	0.05314	0.05304	0.05314	0.05312	0.00437	0.00427	0.00432	0.00423	-0.00378	-0.00382	-0.00374	-0.00377	0.02940	0.02942	0.02946	0.02940	
404.0	0.00005	0.00000	-0.00003	0.11981	0.11987	0.11993	0.12004	0.10193	0.10200	0.10212	0.10222	0.05999	0.06009	0.06020	0.06005	0.05198	0.05211	0.05192	0.05191	0.00420	0.00404	0.00412	0.00415	-0.00384	-0.00383	-0.00375	-0.00384	0.02872	0.02868	0.02873	0.02878	
403.0	0.00009	0.00004	0.00006	0.11810	0.11824	0.11829	0.11835	0.10053	0.10058	0.10070	0.10069	0.05914	0.05920	0.05930	0.05923	0.05115	0.05125	0.05126	0.05122	0.00407	0.00407	0.00389	0.00398	-0.00384	-0.00386	-0.00389	-0.00382	0.02836	0.02833	0.02822	0.02834	
402.0	-0.00005	-0.00004	0.00003	0.11666	0.11677	0.11681	0.11681	0.09910	0.09918	0.09942	0.09949	0.05831	0.05831	0.05838	0.05846	0.05068	0.05052	0.05064	0.05050	0.00389	0.00381	0.00376	0.00375	-0.00404	-0.00395	-0.00388	-0.00391	0.02786	0.02793	0.02784	0.02776	
401.0	-0.00007	-0.00006	-0.00004	0.11547	0.11558	0.11567	0.11571	0.09814	0.09833	0.09839	0.09853	0.05761	0.05779	0.05779	0.05779	0.05023	0.05017	0.05024	0.05021	0.00367	0.00361	0.00356	0.00362	-0.00388	-0.00413	-0.00400	-0.00393	0.02759	0.02753	0.02753	0.02757	
400.0	-0.00005	-0.00002	0.00007	0.11476	0.11485	0.11492	0.11507	0.09760	0.09768	0.09780	0.09783	0.05737	0.05747	0.05732	0.05733	0.04987	0.04981	0.04989	0.04982	0.00353	0.00342	0.00346	0.00343	-0.00398	-0.00405	-0.00417	-0.00406	0.02721	0.02722	0.02737	0.02725	
